#Column Name	Numeric Tolerance	Range of Values
#Number of Measurements		1478
#Date:of:Measurement		Fri  Jun 10  2005 (986);  Mon  Jun 13  2005 (393);  Thu  Jun 9  2005 (99);
#Run:Name:	1	0
#Theta:Rads:	1	-0.4608
#Source:Location:X (mm)	1	-625
#Source:Location:Y (mm)	1	-375
#Source:Location:Z (mm)	1	10
#Source:(mm):		X= -625  Y=-375 Z=10
#Receptor:Location:X (mm)	3	-697 to 1769
#Receptor:Location:Y (mm)	3	-740 to 240
#Receptor:Location:Z (mm)	1	7 (1380);  82 (98);
#Receptor::		X=-288  Y=-361  Z=7 (99);  X=-43  Y=-274  Z=7 (99);  X=-490  Y=-351  Z=7 (98);  X=-500  Y=240  Z=7 (99);  X=-62  Y=-688  Z=7 (99);  X=-697  Y=-687  Z=7 (99);  X=-72  Y=-226  Z=82 (98);  X=144  Y=-399  Z=8 (99);  X=1769  Y=-67  Z=7 (98);  X=192  Y=67  Z=7 (99);  X=39  Y=192  Z=7 (98);  X=500  Y=-96  Z=7 (98);  X=586  Y=-389  Z=8 (99);  X=649  Y=-740  Z=7 (98);  X=803  Y=-87  Z=7 (98);
#Emission:Duration:(s)	0.5000	9.50
#Duration:St_Dev:(s)	1	2.7167E-4
#Ref Velocity:Z=1m:(m/s)	0.10000	2.51
#Wind:Direction:Deg	0.20000	-26.4
#Number:Of:Realisations	1	51 (99);  54 (99);  81 (1280);
#Source:Meas Q:(l/min)	1	2.9960
#Propane:Meas Q:(l/min)	1	0.08588
#Source:Meas Strength:(%)	1	1.0010 (99);  3.0002 (1379);
#Dose:Mean:(ppm s)	5	-0.3392 to 1033.788
#Dose:St_Dev:(ppm s)	1	0.5452 to 122.2094
#T_flight:Mean:(s)	1	6.3923 to 9.8881
#T_flight:St_Dev:(s)	1	0.25189 (593);  1.0199 (787);  1.5586 (98);
#Sigma_T_flight:Mean:(s)	1	2.6728 (1280);  NaN (198);
#Sigma_T_flight:St_Dev:(s)	1	0.3748
#Source:Type:		D=6mm [ID=4.2 mm]
#Measuring:Instrument:Type		FF [C] & RV [V]
#Flow:Meas Time:(min)	0.20000	22.10 (99);  23.40 (99);  35.10 (1280);
#Spires::		5 Irwin spires 1.2m   X=50mm
#Barrier Wall::		Not Installed
#Upstream:Roughness:		H=20mm W=80mm YSpace=240mm  XSpace=240mm Staggered
#Upstream:Ramp:		Ramp 82mm x 900mm
#Average:Inlet Temp:(C)	1	22.96 (1380);  23.70 (98);
#User:Comments:		
#Run:Messages:		
#Model:Type:		DAPPLE Low Res
#Raw:Data:Filename		<DATA_ROOT>:\2005\Raw_data\G3_1\Hong Cheng\Measurement\2005\Jun_2005\ ...10_Jun\WD=26-site4\WD=26-site4_1 (99);  13_Jun\WD=26-siteB\WD=26-siteB_2 (99);  10_Jun\WD=26-site2-1\WD=26-site2-1_1 (98);  9_Jun\WD=26-site1\WD=26-site1_1 (99);  10_Jun\WD=26-site3\WD=26-site3_1 (99);  10_Jun\WD=26-siteD\WD=26-siteD_1 (99);  13_Jun\WD=26-siteA\WD=26-siteA_1 (98);  10_Jun\WD=26-site7\WD=26-site7_1 (99);  13_Jun\WD=26-site12\WD=26-site12_1 (98);  10_Jun\WD=26-site6\WD=26-site6_1 (99);  10_Jun\WD=26-site5\WD=26-site5_1 (98);  10_Jun\WD=26-site8\WD=26-site8_1 (98);  10_Jun\WD=26-site9\WD=26-site9_1 (99);  13_Jun\WD=26-site10\WD=26-site10_1 (98);  10_Jun\WD=26-site11\WD=26-site11_1 (98);
#Original:Results:Filename		
#Time:Measurement:Commenced		
#Street:Names:		
#X:Tunnel:(mm)		
#Y:Tunnel:(mm)		
#File::		WD=26-site ...4_1.xls (99);  B_2.xls (99);  2-1_1.xls (98);  1_1.xls (99);  3_1.xls (99);  D_1.xls (99);  A_1.xls (98);  7_1.xls (99);  12_1.xls (98);  6_1.xls (99);  5_1.xls (98);  8_1.xls (98);  9_1.xls (99);  10_1.xls (98);  11_1.xls (98);
#Seconds:since:1st Jan		
#EnFlo Lab:Stratification:Delta T (C)		
#FF (C):Calibration:Drift		
#Time (s)::	1	0.24500 to 24.2770
#Av_Puff (ppm)::	1	-0.06300 to 123.5620
#EnFlo_Tunnel Metadata:Source:Location		
#EnFlo_Tunnel Metadata:Release:Duration (s)		
#FF (C):No of Lone Spikes:Removed		


#Time (s)	Av_Puff (ppm)

#Source (mm)=X= -625  Y=-375 Z=10__Receptor=X=-288  Y=-361  Z=7__
0.26300	-0.05000	
0.4390	-0.03700	
0.6150	-0.04200	
0.7910	-0.031000	
0.9670	-0.026000	
1.1430	-0.03900	
1.3190	-0.019000	
1.4950	0.031000	
1.6710	0.16300	
1.8470	1.2070	
2.0230	1.1960	
2.1990	1.5200	
2.3750	2.6480	
2.5510	3.5990	
2.7270	5.2480	
2.9030	9.5100	
3.0790	7.6660	
3.2550	6.5550	
3.4310	6.6120	
3.6070	5.9340	
3.7830	5.5880	
3.9590	5.5420	
4.1350	5.6850	
4.3110	6.0410	
4.4870	5.8500	
4.6630	5.5620	
4.8390	5.5660	
5.0150	5.3810	
5.1910	4.9710	
5.3670	4.2790	
5.5430	5.0060	
5.7190	6.2520	
5.8950	6.8940	
6.0710	7.6180	
6.2470	7.8310	
6.4230	7.7380	
6.5990	6.7210	
6.7750	6.5580	
6.9510	5.0590	
7.1270	4.4400	
7.3030	7.5610	
7.4790	7.7220	
7.6550	6.5920	
7.8310	5.2380	
8.0070	5.3550	
8.1830	5.0210	
8.3590	5.2730	
8.5350	5.5830	
8.7110	5.0490	
8.8870	4.8380	
9.0630	5.5130	
9.2390	6.0910	
9.4150	6.0200	
9.5910	4.6900	
9.7670	4.1930	
9.9430	4.6400	
10.1190	6.3090	
10.2950	5.8430	
10.4710	5.3550	
10.6470	6.6970	
10.8230	5.8300	
10.9990	5.2210	
11.1750	5.4620	
11.3510	4.9600	
11.5270	3.8250	
11.7030	3.7960	
11.8790	3.0050	
12.0550	2.5390	
12.2310	2.0990	
12.4070	2.0280	
12.5830	1.2890	
12.7590	0.9390	
12.9350	0.7870	
13.1110	0.6650	
13.2870	0.4590	
13.4630	0.3840	
13.6390	0.3240	
13.8150	0.23500	
13.9910	0.19000	
14.1670	0.13800	
14.3430	0.11000	
14.5190	0.10600	
14.6950	0.04000	
14.8710	0.04900	
15.0470	0.04200	
15.2230	0.025000	
15.3990	0.020000	
15.5750	0.023000	
15.7510	0.03400	
15.9270	0.015000	
16.1030	0.03500	
16.2790	0.021000	
16.4550	0.008000	
16.6310	-0.007000	
16.8070	0.007000	
16.9830	0.011000	
17.1590	0.010000	
17.3350	0.0020000	
17.5110	1.0000E-3	


#Source (mm)=X= -625  Y=-375 Z=10__Receptor=X=-43  Y=-274  Z=7__
0.27200	-0.027000	
0.4540	-0.04300	
0.6360	-0.031000	
0.8180	-0.03600	
1	-0.04100	
1.1820	-0.021000	
1.3640	-0.030000	
1.5460	-0.025000	
1.7280	0.04600	
1.9100	0.3210	
2.0920	0.4560	
2.2740	1.1120	
2.4560	1.2290	
2.6380	1.9730	
2.8200	2.1990	
3.0020	2.6110	
3.1840	2.9620	
3.3660	3.8770	
3.5480	4.4740	
3.7300	4.4870	
3.9120	5.2900	
4.0940	4.8080	
4.2760	5.4270	
4.4580	5.8180	
4.6400	5.5030	
4.8220	6.3180	
5.0040	5.9080	
5.1860	6.3070	
5.3680	6.4050	
5.5500	7.0180	
5.7320	7.1990	
5.9140	9.0670	
6.0960	8.3850	
6.2780	7.4690	
6.4600	8.1890	
6.6420	8.2970	
6.8240	7.8770	
7.0060	9.1180	
7.1880	8.3120	
7.3700	7.7950	
7.5520	8.3120	
7.7340	7.3930	
7.9160	7.4910	
8.0980	7.3140	
8.2800	7.0910	
8.4620	6.6600	
8.6440	6.5480	
8.8260	6.2950	
9.0080	8.5610	
9.1900	7.8420	
9.3720	6.9280	
9.5540	7.5400	
9.7360	7.5240	
9.9180	7.5610	
10.1000	7.6050	
10.2820	8.1660	
10.4640	7.3980	
10.6460	7.7820	
10.8280	8.8340	
11.0100	7.6360	
11.1920	6.2380	
11.3740	6.0450	
11.5560	5.4280	
11.7380	5.8380	
11.9200	4.8460	
12.1020	4.3610	
12.2840	3.4730	
12.4660	3.2390	
12.6480	2.7450	
12.8300	2.2230	
13.0120	1.9250	
13.1940	1.2940	
13.3760	1.0340	
13.5580	0.8170	
13.7400	0.7030	
13.9220	0.5450	
14.1040	0.4420	
14.2860	0.4050	
14.4680	0.3660	
14.6500	0.26700	
14.8320	0.20400	
15.0140	0.16100	
15.1960	0.12900	
15.3780	0.11600	
15.5600	0.10300	
15.7420	0.07600	
15.9240	0.07000	
16.1060	0.04900	
16.2880	0.031000	
16.4700	0.03200	
16.6520	0.028000	
16.8340	0.022000	
17.0160	0.024000	
17.1980	-0.007000	
17.3800	0.017000	
17.5620	0.019000	
17.7440	0.017000	
17.9260	0.007000	
18.1080	0.010000	


#Source (mm)=X= -625  Y=-375 Z=10__Receptor=X=-490  Y=-351  Z=7__
0.26000	-0.026000	
0.4340	-0.04300	
0.6080	-0.007000	
0.7820	-0.03900	
0.9560	-0.04700	
1.1300	-0.03700	
1.3040	-0.03400	
1.4780	-0.021000	
1.6520	-0.019000	
1.8260	0.011000	
2	0.07900	
2.1740	0.24100	
2.3480	0.19800	
2.5220	0.3270	
2.6960	0.5330	
2.8700	0.4710	
3.0440	0.4640	
3.2180	0.5300	
3.3920	0.3680	
3.5660	0.4670	
3.7400	0.4570	
3.9140	0.5140	
4.0880	0.4240	
4.2620	0.6060	
4.4360	0.4420	
4.6100	0.5340	
4.7840	0.6060	
4.9580	0.8230	
5.1320	1.0320	
5.3060	0.6350	
5.4800	0.5960	
5.6540	0.6180	
5.8280	1.0990	
6.0020	1.1230	
6.1760	0.8710	
6.3500	0.6070	
6.5240	0.7800	
6.6980	0.8270	
6.8720	1.1050	
7.0460	1.0600	
7.2200	0.8910	
7.3940	0.7230	
7.5680	0.9430	
7.7420	0.9570	
7.9160	1.2900	
8.0900	0.7370	
8.2640	0.8650	
8.4380	0.8940	
8.6120	0.8040	
8.7860	0.6340	
8.9600	0.7250	
9.1340	0.6050	
9.3080	0.3960	
9.4820	0.4760	
9.6560	0.8790	
9.8300	1.0310	
10.0040	0.8290	
10.1780	0.7030	
10.3520	0.6840	
10.5260	0.5930	
10.7000	0.7640	
10.8740	0.7330	
11.0480	0.5710	
11.2220	0.5440	
11.3960	0.9540	
11.5700	0.7940	
11.7440	0.5490	
11.9180	0.4020	
12.0920	0.4080	
12.2660	0.3670	
12.4400	0.23100	
12.6140	0.19600	
12.7880	0.17200	
12.9620	0.12700	
13.1360	0.10700	
13.3100	0.07500	
13.4840	0.029000	
13.6580	0.022000	
13.8320	0.04300	
14.0060	0.017000	
14.1800	0.03400	
14.3540	0.010000	
14.5280	0.027000	
14.7020	0.020000	
14.8760	1.0000E-3	
15.0500	0.018000	
15.2240	0.016000	
15.3980	-0.0020000	
15.5720	0.010000	
15.7460	0.019000	
15.9200	0.009000	
16.0940	-0.0030000	
16.2680	-0.006000	
16.4420	1.0000E-3	
16.6160	-0.018000	
16.7900	-0.021000	
16.9640	-0.005000	
17.1380	0.007000	


#Source (mm)=X= -625  Y=-375 Z=10__Receptor=X=-500  Y=240  Z=7__
0.3650	-0.020000	
0.6090	-0.04100	
0.8530	-0.04100	
1.0970	-0.027000	
1.3410	-0.04400	
1.5850	-0.03400	
1.8290	-0.030000	
2.0730	-0.03300	
2.3170	-0.03400	
2.5610	-0.04800	
2.8050	-0.04100	
3.0490	-0.03600	
3.2930	-0.03900	
3.5370	-0.03400	
3.7810	-0.05200	
4.0250	-0.04200	
4.2690	-0.04000	
4.5130	-0.021000	
4.7570	-0.025000	
5.0010	-0.03500	
5.2450	-0.03900	
5.4890	-0.04200	
5.7330	-0.025000	
5.9770	-0.03600	
6.2210	-0.04000	
6.4650	-0.04400	
6.7090	-0.029000	
6.9530	-0.03300	
7.1970	-0.014000	
7.4410	-0.017000	
7.6850	-0.05200	
7.9290	-0.017000	
8.1730	-0.020000	
8.4170	-0.020000	
8.6610	-0.03400	
8.9050	-0.024000	
9.1490	-0.03800	
9.3930	-0.024000	
9.6370	-0.013000	
9.8810	0.007000	
10.1250	0.004000	
10.3690	-0.0030000	
10.6130	-0.004000	
10.8570	-0.008000	
11.1010	0.018000	
11.3450	0.007000	
11.5890	-0.009000	
11.8330	-1.0000E-3	
12.0770	-0.007000	
12.3210	0.009000	
12.5650	-0.013000	
12.8090	0	
13.0530	0.006000	
13.2970	0.0030000	
13.5410	-0.0020000	
13.7850	-1.0000E-3	
14.0290	-0.0030000	
14.2730	-0.004000	
14.5170	-0.0030000	
14.7610	-0.004000	
15.0050	0.007000	
15.2490	-0.019000	
15.4930	0.010000	
15.7370	-0.005000	
15.9810	-0.006000	
16.2250	1.0000E-3	
16.4690	-0.015000	
16.7130	0.006000	
16.9570	0.0030000	
17.2010	-0.009000	
17.4450	-0.004000	
17.6890	-1.0000E-3	
17.9330	0.0030000	
18.1770	-0.009000	
18.4210	0.008000	
18.6650	-0.004000	
18.9090	-0.013000	
19.1530	0.007000	
19.3970	-0.015000	
19.6410	-0.009000	
19.8850	-0.008000	
20.1290	-0.008000	
20.3730	0.0020000	
20.6170	0.0020000	
20.8610	-1.0000E-3	
21.1050	-0.0020000	
21.3490	0.008000	
21.5930	0.006000	
21.8370	0.0020000	
22.0810	-1.0000E-3	
22.3250	-0.006000	
22.5690	-0.004000	
22.8130	0.006000	
23.0570	1.0000E-3	
23.3010	1.0000E-3	
23.5450	0.020000	
23.7890	-0.005000	
24.0330	-0.008000	
24.2770	-0.008000	


#Source (mm)=X= -625  Y=-375 Z=10__Receptor=X=-62  Y=-688  Z=7__
0.24500	-0.05100	
0.4090	-0.03500	
0.5730	-0.024000	
0.7370	0.3900	
0.9010	4.2900	
1.0650	12.1220	
1.2290	23.6250	
1.3930	47.7400	
1.5570	63.4530	
1.7210	70.7080	
1.8850	80.3400	
2.0490	85.3180	
2.2130	99.6900	
2.3770	105.7420	
2.5410	95.9440	
2.7050	94.7240	
2.8690	103.3950	
3.0330	95.3970	
3.1970	92.4780	
3.3610	102.3750	
3.5250	109.8920	
3.6890	102.1460	
3.8530	116.1170	
4.0170	109.9380	
4.1810	116.2210	
4.3450	113.6420	
4.5090	118.3520	
4.6730	112.7600	
4.8370	114.4190	
5.0010	108.1550	
5.1650	105.6500	
5.3290	104.9330	
5.4930	98.5370	
5.6570	101.2010	
5.8210	102.7210	
5.9850	109.0030	
6.1490	95.1250	
6.3130	102.2200	
6.4770	116.0820	
6.6410	107.8010	
6.8050	105.9770	
6.9690	109	
7.1330	113.3290	
7.2970	100.2100	
7.4610	113.7200	
7.6250	117.8310	
7.7890	103.9510	
7.9530	117.4940	
8.1170	117.3740	
8.2810	115.0040	
8.4450	123.5620	
8.6090	116.3560	
8.7730	109.1180	
8.9370	105.8410	
9.1010	102.9300	
9.2650	111.3550	
9.4290	116.8330	
9.5930	107.7240	
9.7570	100.9900	
9.9210	110.2830	
10.0850	110.3170	
10.2490	100.9780	
10.4130	107.0840	
10.5770	93.8490	
10.7410	77.9300	
10.9050	61.7010	
11.0690	42.5260	
11.2330	34.6310	
11.3970	25.9110	
11.5610	19.4040	
11.7250	14.3770	
11.8890	10.8740	
12.0530	8.9820	
12.2170	7.3650	
12.3810	5.1660	
12.5450	4.5970	
12.7090	3.5950	
12.8730	2.8740	
13.0370	1.9700	
13.2010	1.6190	
13.3650	1.3350	
13.5290	1.0930	
13.6930	0.8170	
13.8570	0.6710	
14.0210	0.5130	
14.1850	0.4550	
14.3490	0.30900	
14.5130	0.24300	
14.6770	0.21900	
14.8410	0.16300	
15.0050	0.12600	
15.1690	0.10600	
15.3330	0.11100	
15.4970	0.06900	
15.6610	0.06800	
15.8250	0.04200	
15.9890	0.04900	
16.1530	0.04200	
16.3170	0.025000	


#Source (mm)=X= -625  Y=-375 Z=10__Receptor=X=-697  Y=-687  Z=7__
0.3650	-0.031000	
0.6090	-0.022000	
0.8530	-0.03300	
1.0970	-0.04100	
1.3410	-0.03300	
1.5850	-0.028000	
1.8290	-0.05000	
2.0730	-0.03700	
2.3170	-0.03800	
2.5610	-0.019000	
2.8050	-0.026000	
3.0490	-0.022000	
3.2930	-0.027000	
3.5370	-0.029000	
3.7810	-0.026000	
4.0250	-0.03300	
4.2690	-0.03800	
4.5130	-0.014000	
4.7570	-0.03400	
5.0010	-0.030000	
5.2450	-0.022000	
5.4890	-0.03700	
5.7330	-0.028000	
5.9770	-0.024000	
6.2210	-0.023000	
6.4650	-0.04100	
6.7090	-0.031000	
6.9530	-0.012000	
7.1970	-0.03700	
7.4410	-0.030000	
7.6850	-0.018000	
7.9290	-0.018000	
8.1730	-0.03800	
8.4170	-0.028000	
8.6610	-0.022000	
8.9050	-0.011000	
9.1490	-0.008000	
9.3930	-0.018000	
9.6370	0.010000	
9.8810	0.007000	
10.1250	-0.0020000	
10.3690	0.020000	
10.6130	0.007000	
10.8570	1.0000E-3	
11.1010	-0.0020000	
11.3450	0.019000	
11.5890	0.020000	
11.8330	-1.0000E-3	
12.0770	0.011000	
12.3210	0	
12.5650	0.006000	
12.8090	0.012000	
13.0530	-1.0000E-3	
13.2970	0.009000	
13.5410	-0.004000	
13.7850	0.011000	
14.0290	0.009000	
14.2730	-0.0020000	
14.5170	0.009000	
14.7610	0.013000	
15.0050	-0.012000	
15.2490	0.004000	
15.4930	0.009000	
15.7370	-0.0030000	
15.9810	0.015000	
16.2250	0.011000	
16.4690	-0.008000	
16.7130	0.005000	
16.9570	0.022000	
17.2010	0.012000	
17.4450	0.0020000	
17.6890	0.007000	
17.9330	0.012000	
18.1770	0.012000	
18.4210	0.015000	
18.6650	0.007000	
18.9090	0.0030000	
19.1530	0.0020000	
19.3970	0.012000	
19.6410	-0.004000	
19.8850	0.013000	
20.1290	0.014000	
20.3730	-0.008000	
20.6170	-0.014000	
20.8610	-1.0000E-3	
21.1050	0.013000	
21.3490	0.011000	
21.5930	-0.004000	
21.8370	0.006000	
22.0810	0.005000	
22.3250	0.012000	
22.5690	-0.010000	
22.8130	0.007000	
23.0570	0.018000	
23.3010	0.007000	
23.5450	-0.0020000	
23.7890	-0.017000	
24.0330	0.009000	
24.2770	0.008000	


#Source (mm)=X= -625  Y=-375 Z=10__Receptor=X=-72  Y=-226  Z=82__
0.27200	-0.05000	
0.4540	-0.03800	
0.6360	-0.031000	
0.8180	-0.04000	
1	-0.04200	
1.1820	-0.04400	
1.3640	-0.031000	
1.5460	-0.024000	
1.7280	0.008000	
1.9100	0.024000	
2.0920	0.04000	
2.2740	0.09400	
2.4560	0.14700	
2.6380	0.25000	
2.8200	0.20700	
3.0020	0.22800	
3.1840	0.24900	
3.3660	0.4880	
3.5480	0.5540	
3.7300	0.4520	
3.9120	0.4870	
4.0940	0.7350	
4.2760	0.6620	
4.4580	0.5060	
4.6400	0.5840	
4.8220	0.7310	
5.0040	0.6200	
5.1860	0.5890	
5.3680	0.7120	
5.5500	0.6960	
5.7320	0.8730	
5.9140	0.6910	
6.0960	0.6900	
6.2780	0.7520	
6.4600	0.5550	
6.6420	0.7310	
6.8240	0.6190	
7.0060	0.8200	
7.1880	0.7550	
7.3700	0.6210	
7.5520	0.8440	
7.7340	0.7400	
7.9160	0.7840	
8.0980	0.5760	
8.2800	0.5030	
8.4620	0.7050	
8.6440	0.6790	
8.8260	0.6490	
9.0080	0.6860	
9.1900	0.7710	
9.3720	0.7630	
9.5540	0.7650	
9.7360	0.6350	
9.9180	0.5870	
10.1000	0.7000	
10.2820	0.9810	
10.4640	0.7260	
10.6460	0.6810	
10.8280	0.4920	
11.0100	0.4980	
11.1920	0.7170	
11.3740	0.5370	
11.5560	0.4960	
11.7380	0.4100	
11.9200	0.4360	
12.1020	0.3980	
12.2840	0.3810	
12.4660	0.29800	
12.6480	0.26000	
12.8300	0.20400	
13.0120	0.17000	
13.1940	0.13000	
13.3760	0.09900	
13.5580	0.11900	
13.7400	0.06800	
13.9220	0.06800	
14.1040	0.06800	
14.2860	0.04000	
14.4680	0.03300	
14.6500	0.013000	
14.8320	0.023000	
15.0140	-0.007000	
15.1960	0.007000	
15.3780	0.016000	
15.5600	0.026000	
15.7420	-0.008000	
15.9240	1.0000E-3	
16.1060	0.007000	
16.2880	-0.011000	
16.4700	-0.0020000	
16.6520	-1.0000E-3	
16.8340	0.011000	
17.0160	-0.006000	
17.1980	-0.012000	
17.3800	-1.0000E-3	
17.5620	-0.013000	
17.7440	-0.012000	
17.9260	0.004000	


#Source (mm)=X= -625  Y=-375 Z=10__Receptor=X=144  Y=-399  Z=8__
0.27500	-0.03800	
0.4590	-0.05500	
0.6430	-0.04200	
0.8270	-0.05300	
1.0110	-0.06300	
1.1950	-0.06100	
1.3790	0.016000	
1.5630	0.21900	
1.7470	0.7620	
1.9310	1.8400	
2.1150	4.0450	
2.2990	7.9120	
2.4830	12.5470	
2.6670	17.6790	
2.8510	24.1470	
3.0350	30.3410	
3.2190	35.9970	
3.4030	41.1270	
3.5870	45.6050	
3.7710	48.1930	
3.9550	50.9080	
4.1390	54.2230	
4.3230	56.0420	
4.5070	57.7980	
4.6910	58.5370	
4.8750	58.5900	
5.0590	58.3510	
5.2430	58.8100	
5.4270	58.1690	
5.6110	58.8160	
5.7950	59.8490	
5.9790	61.1600	
6.1630	63.4770	
6.3470	62.4750	
6.5310	62.3090	
6.7150	60.1340	
6.8990	60.2160	
7.0830	61.0700	
7.2670	60.1390	
7.4510	60.3710	
7.6350	59.6820	
7.8190	61.2350	
8.0030	60.8620	
8.1870	61.9700	
8.3710	61.5550	
8.5550	58.9730	
8.7390	62.1040	
8.9230	60.6770	
9.1070	60.8360	
9.2910	62.4900	
9.4750	62.7420	
9.6590	61.3620	
9.8430	59.8140	
10.0270	60.0720	
10.2110	61.3600	
10.3950	65.2740	
10.5790	62.0740	
10.7630	59.7260	
10.9470	61.9490	
11.1310	62.2830	
11.3150	59.6290	
11.4990	59.3830	
11.6830	56.5960	
11.8670	53.1450	
12.0510	47.3430	
12.2350	41.2350	
12.4190	36.0760	
12.6030	29.2870	
12.7870	24.3910	
12.9710	19.5590	
13.1550	15.7690	
13.3390	12.2890	
13.5230	9.9280	
13.7070	7.9160	
13.8910	6.2400	
14.0750	5.0370	
14.2590	3.9110	
14.4430	3.0790	
14.6270	2.4580	
14.8110	1.9490	
14.9950	1.5340	
15.1790	1.2320	
15.3630	0.9790	
15.5470	0.7380	
15.7310	0.6060	
15.9150	0.4960	
16.0990	0.3940	
16.2830	0.29700	
16.4670	0.26800	
16.6510	0.23800	
16.8350	0.20800	
17.0190	0.16100	
17.2030	0.12600	
17.3870	0.11200	
17.5710	0.12000	
17.7550	0.07200	
17.9390	0.07500	
18.1230	0.04100	
18.3070	0.04000	


#Source (mm)=X= -625  Y=-375 Z=10__Receptor=X=1769  Y=-67  Z=7__
0.31400	-0.04900	
0.5240	-0.03800	
0.7340	-0.03300	
0.9440	-0.03500	
1.1540	-0.04500	
1.3640	-0.03700	
1.5740	-0.04000	
1.7840	-0.04300	
1.9940	-0.04800	
2.2040	-0.04400	
2.4140	-0.04100	
2.6240	0.0020000	
2.8340	0.08400	
3.0440	0.19400	
3.2540	0.3610	
3.4640	0.6110	
3.6740	0.8910	
3.8840	1.2120	
4.0940	1.3890	
4.3040	1.7230	
4.5140	2.0870	
4.7240	2.4030	
4.9340	2.7210	
5.1440	3.0480	
5.3540	3.2930	
5.5640	3.6560	
5.7740	3.9590	
5.9840	4.0440	
6.1940	4.3350	
6.4040	4.5380	
6.6140	4.7650	
6.8240	4.7270	
7.0340	4.8160	
7.2440	4.9270	
7.4540	5.1120	
7.6640	5.1160	
7.8740	5.2220	
8.0840	5.2020	
8.2940	5.2950	
8.5040	5.2370	
8.7140	5.3710	
8.9240	5.5560	
9.1340	5.5460	
9.3440	5.6590	
9.5540	5.6230	
9.7640	5.7880	
9.9740	5.5750	
10.1840	5.5050	
10.3940	5.5580	
10.6040	5.7090	
10.8140	5.5300	
11.0240	5.6050	
11.2340	5.4060	
11.4440	5.4730	
11.6540	5.5980	
11.8640	5.6510	
12.0740	5.7190	
12.2840	5.5730	
12.4940	5.3860	
12.7040	5.2800	
12.9140	5.1210	
13.1240	4.9050	
13.3340	4.4940	
13.5440	4.1460	
13.7540	3.8330	
13.9640	3.4070	
14.1740	3.1790	
14.3840	2.8290	
14.5940	2.4950	
14.8040	2.2030	
15.0140	1.9950	
15.2240	1.6190	
15.4340	1.2940	
15.6440	1.1210	
15.8540	0.9210	
16.0640	0.7620	
16.2740	0.6300	
16.4840	0.5050	
16.6940	0.4200	
16.9040	0.3400	
17.1140	0.26200	
17.3240	0.20100	
17.5340	0.17100	
17.7440	0.12100	
17.9540	0.09400	
18.1640	0.08800	
18.3740	0.06800	
18.5840	0.04700	
18.7940	0.03300	
19.0040	0.03700	
19.2140	0.026000	
19.4240	0.023000	
19.6340	0.016000	
19.8440	0.013000	
20.0540	0.013000	
20.2640	-0.004000	
20.4740	0.012000	
20.6840	0.0030000	


#Source (mm)=X= -625  Y=-375 Z=10__Receptor=X=192  Y=67  Z=7__
0.29300	-0.030000	
0.4890	-0.03200	
0.6850	-0.030000	
0.8810	-0.04100	
1.0770	-0.03200	
1.2730	-0.04100	
1.4690	-0.028000	
1.6650	-0.03600	
1.8610	-0.03600	
2.0570	-0.016000	
2.2530	0.0020000	
2.4490	0.07400	
2.6450	0.07900	
2.8410	0.22000	
3.0370	0.29100	
3.2330	0.4590	
3.4290	0.7280	
3.6250	0.8460	
3.8210	0.9840	
4.0170	1.0830	
4.2130	1.0310	
4.4090	1.4040	
4.6050	1.5230	
4.8010	1.7240	
4.9970	1.7960	
5.1930	1.7590	
5.3890	1.7710	
5.5850	1.9420	
5.7810	2.2100	
5.9770	1.9070	
6.1730	2.1850	
6.3690	2.0190	
6.5650	2.1190	
6.7610	2.2610	
6.9570	2.5750	
7.1530	2.3840	
7.3490	2.1070	
7.5450	1.8720	
7.7410	1.8260	
7.9370	2.1460	
8.1330	2.0300	
8.3290	1.9570	
8.5250	1.7340	
8.7210	1.7690	
8.9170	1.7850	
9.1130	2.0190	
9.3090	2.2130	
9.5050	2.0690	
9.7010	1.9970	
9.8970	1.9420	
10.0930	2.3810	
10.2890	2.1760	
10.4850	2.3180	
10.6810	2.0760	
10.8770	2.3060	
11.0730	2.4480	
11.2690	2.3420	
11.4650	2.1290	
11.6610	2.0740	
11.8570	2.4320	
12.0530	2.0300	
12.2490	2.0400	
12.4450	1.9310	
12.6410	1.6350	
12.8370	1.4880	
13.0330	1.4660	
13.2290	1.3780	
13.4250	1.0180	
13.6210	0.9490	
13.8170	0.7710	
14.0130	0.5810	
14.2090	0.5360	
14.4050	0.4450	
14.6010	0.3330	
14.7970	0.27900	
14.9930	0.22300	
15.1890	0.18200	
15.3850	0.13100	
